! Center RA: 02 41 04.79850,  Dec: -08 15 20.75195 (2000.0)
! Established model.
! Flux (Jy) Radius (mas)  Theta (deg)  Major FWHM (mas)  Axial ratio   Phi (deg) T \
! Freq (Hz)     SpecIndex
  0.602067      0.00000      0.00000 
 0.0342117     0.100000     -90.0000 
0.00528433     0.141421     -135.000 
0.00161949     0.223607     -116.565 
5.51534e-05     0.316228      71.5651 
4.10804e-05      1.17047      70.0169 
9.40928e-05     0.316228     -108.435 
6.81406e-05     0.854400     -110.556 
4.08460e-05      1.48661      70.3462 
5.41076e-05      1.80278      70.5600 
4.05811e-05      1.17047     -109.983 
1.34778e-05      1.39284     -111.038 
1.34657e-05      2.02485      69.7751 
4.02912e-05      1.48661     -109.654 
5.36278e-05      2.11896      70.7100 
6.66906e-05      1.70880     -110.556 
2.66758e-05      2.34094      70.0169 
6.62986e-05      2.43516      70.8210 
2.65193e-05      1.80278     -109.440 
3.96154e-05      2.02485     -110.225 
3.95200e-05      2.65707      70.2011 
6.56052e-05      2.11896     -109.290 
6.54505e-05      2.75136      70.9065 
7.80561e-05      2.34094     -109.983 
5.19986e-05      2.97321      70.3462 
7.74155e-05      3.06757      70.9744 
5.16476e-05      2.43516     -109.179 
8.96633e-05      2.65707     -109.799 
7.67450e-05      3.28938      70.4633 
7.61527e-05      2.75136     -109.093 
0.000101326      3.38378      71.0296 
8.80557e-05      2.97321     -109.654 
0.000100235      3.60555      70.5600 
0.000136738      3.06757     -109.026 
7.44879e-05      3.70000      71.0754 
6.16336e-05      3.79473      71.5651 
7.37732e-05      3.28938     -109.537 
7.34532e-05      3.92173      70.6410 
0.000145918      3.38378     -108.970 
0.000109172      4.01622      71.1139 
8.41440e-05      3.47851     -108.435 
0.000131835      4.11096      71.5651 
5.96760e-05      3.60555     -109.440 
2.37866e-05      4.23792      70.7100 
0.000106551      3.70000     -108.925 
0.000129858      4.33244      71.1468 
0.000198330      3.79473     -108.435 
0.000162963      4.42719      71.5651 
5.76203e-05      3.88973     -107.969 
0.000137686      4.52217      71.9657 
0.000125667      4.01622     -108.886 
7.94956e-05      4.64866      71.1753 
0.000202485      4.11096     -108.435 
0.000223918      4.74342      71.5651 
0.000209634      4.20595     -108.004 
0.000197572      4.83839      71.9395 
6.53493e-05      4.30116     -107.592 
0.000140445      4.93356      72.2996 
0.000225629      4.42719     -108.435 
0.000191468      5.05964      71.5651 
0.000324590      4.52217     -108.034 
0.000291159      5.15461      71.9166 
0.000274793      4.61736     -107.650 
0.000283312      5.24976      72.2553 
4.01017e-05      4.71275     -107.281 
7.97426e-05      4.74342     -108.435 
0.000207536      5.34509      72.5820 
0.000437450      4.83839     -108.060 
0.000374660      5.47083      71.8962 
0.000346075      4.93356     -107.700 
0.000388466      5.56597      72.2161 
0.000431585      5.02892     -107.354 
0.000537954      5.66127      72.5252 
0.000379190      5.15461     -108.083 
9.38369e-05      5.75674      72.8241 
0.000259439      5.78705      71.8781 
0.000635932      5.24976     -107.745 
0.000705526      5.88218      72.1811 
0.000737888      5.34509     -107.418 
0.000707004      5.97746      72.4744 
5.02512e-05      5.44059     -107.103 
0.000651665      5.47083     -108.104 
0.000233576      6.07289      72.7585 
0.000671909      6.10328      71.8619 
0.00117616      5.56597     -107.784 
0.00133203      6.19839      72.1497 
0.000179576      5.66127     -107.475 
0.00160127      5.69210     -108.435 
0.00157024      6.32456      71.5651 
0.000131986      5.78705     -108.122 
0.00122875      5.81893     -109.058 
0.000453247      6.35689      70.7100 
0.000772840      6.45136      71.0033 
0.000802561      5.85235     -109.983 
0.000535676      6.39062      69.8637 
0.000509318      5.72451     -109.385 
0.000116968      6.70671      69.9439 
0.000137798      6.61287      69.6468 
0.000463837      6.64831      68.8387 
0.000431374      5.75847     -110.323 
7.95860e-06     0.447214      63.4349 
1.58859e-05     0.538517     -111.801 
1.58703e-05     0.894427      63.4349 
2.37136e-05     0.761577     -113.199 
2.36906e-05      1.20830      65.5560 
1.57338e-05     0.984886     -113.962 
2.35563e-05      1.43178      65.2249 
1.56748e-05      1.20830     -114.444 
3.12060e-05      1.65529      64.9831 
2.34043e-05      1.30000     -112.620 
3.10096e-05      1.52315     -113.199 
1.55186e-05      1.87883      64.7989 
2.31751e-05      1.96977      66.0375 
3.84584e-05      1.74642     -113.629 
4.59923e-05      2.19317      65.7723 
3.81333e-05      1.96977     -113.962 
5.30788e-05      2.41661      65.5560 
2.27291e-05      2.06155     -112.834 
7.55160e-06      2.19317     -114.228 
5.99838e-05      2.28473     -113.199 
3.75490e-05      2.64008      65.3764 
3.72559e-05      2.73130      66.2505 
5.18806e-05      2.50799     -113.499 
7.41690e-06      2.86356      65.2249 
7.35624e-05      2.95466      66.0375 
2.94026e-05      2.60000     -112.620 
2.19383e-05      2.73130     -113.749 
5.80850e-05      3.17805      65.8545 
7.24524e-05      2.82312     -112.932 
5.02904e-05      3.26956      66.5713 
7.14510e-05      3.04631     -113.199 
1.42800e-05      3.40147      65.6955 
7.78595e-05      3.49285      66.3706 
4.94475e-05      3.13847     -112.479 
2.80509e-05      3.26956     -113.429 
3.50184e-05      3.58469      67.0113 
8.32968e-05      3.36155     -112.751 
4.86506e-05      3.71618      66.1941 
9.60278e-05      3.80789      66.8014 
4.11794e-05      3.45398     -112.109 
6.12006e-05      3.58469     -112.989 
2.71339e-05      3.90000      67.3801 
8.06282e-05      4.03113      66.6148 
9.38987e-05      3.67696     -112.380 
9.91993e-05      4.12311      67.1663 
4.63721e-05      3.76962     -111.801 
8.51336e-05      3.90000     -112.620 
3.92029e-05      4.21545      67.6938 
0.000109655      4.34626      66.9745 
0.000109470      3.99249     -112.068 
0.000120150      4.43847      67.4794 
6.97473e-05      4.08534     -111.541 
0.000106173      4.21545     -112.306 
5.60591e-05      4.53100      67.9638 
0.000134815      4.66154      67.2856 
0.000134602      4.30813     -111.801 
0.000143604      4.75395      67.7510 
0.000101925      4.40114     -111.318 
0.000123492      4.53100     -112.036 
0.000105424      4.84665      68.1986 
0.000166329      4.62385     -111.571 
0.000160277      4.97695      67.5572 
0.000172630      4.71699     -111.125 
0.000183322      5.06952      67.9887 
0.000135484      4.84665     -111.801 
0.000172264      5.16236      68.4047 
0.000220463      4.93964     -111.371 
0.000187630      5.29245      67.7965 
0.000241514      5.03289     -110.956 
0.000245401      5.38516      68.1986 
9.26501e-05      5.12640     -110.556 
0.000271765      5.47814      68.5870 
0.000114729      5.16236     -111.595 
0.000307230      5.25547     -111.194 
0.000275531      5.60803      68.0089 
0.000334866      5.34883     -110.807 
0.000347150      5.70088      68.3852 
8.21245e-05      5.44243     -110.433 
0.000303450      5.79396      68.7495 
0.000279917      5.47814     -111.413 
0.000465314      5.57136     -111.038 
9.78286e-05      5.83095      67.8337 
0.000515747      5.92368      68.1986 
0.000192438      5.66480     -110.674 
0.000266999      6.01664      68.5523 
0.000388432      5.70088     -111.615 
0.000395701      6.05392      67.6713 
0.000438897      5.79396     -111.251 
0.000380787      6.14654      68.0255 
0.000389050      5.83095     -112.166 
0.000563184      6.18466      67.1663 
0.000290826      5.92368     -111.801 
1.90847e-06      5.86941     -113.070 
0.000469522      5.96154     -112.694 
0.000289070      6.22415      66.3179 
0.000170532      6.31585      66.6823 
0.000315024      6.00083     -113.575 
0.000210274      6.26498      65.4804 
0.000106226      6.35610      65.8545 
6.93523e-05      5.95063     -114.842 
0.000241388      6.30714      64.6538 
0.000181122      6.04152     -114.444 
7.06144e-05      5.99333     -115.710 
4.82920e-05      6.35059      63.8384 
6.18106e-05      7.11758     -155.956 
1.67427e-05      6.09262     -113.199 
4.00203e-05      6.39766      65.0372 
1.81621e-05      6.14654     -111.975 
1.06921e-05      6.76757      34.1597 
1.24531e-05      6.20323     -110.772 
6.19814e-06      6.44748      66.2180 
0.00560820     0.100000     -90.0000 
8.85642e-05     0.223607     -116.565 
8.07810e-05     0.141421      45.0000 
1.12661e-05     0.640312      51.3402 
7.51076e-06     0.360555     -123.690 
1.49337e-05     0.721110     -123.690 
1.86311e-05      1.14018      52.1250 
7.42377e-06     0.860233     -125.538 
3.70476e-06      1.28062      51.3402 
7.39559e-06      1.08167     -123.690 
1.47497e-05      1.50000      53.1301 
1.83691e-05      1.22066     -124.992 
1.46409e-05      1.64012      52.4314 
1.09406e-05      1.36015     -126.027 
1.09107e-05      1.78045      51.8428 
1.44960e-05      1.58114     -124.695 
2.16479e-05      2.00000      53.1301 
2.15540e-05      1.72047     -125.538 
1.78681e-05      2.14009      52.5946 
1.42456e-05      1.86011     -126.254 
1.77165e-05      2.28035      52.1250 
3.54628e-06      1.94165     -124.509 
2.46595e-05      2.08087     -125.218 
3.52556e-06      2.36008      53.6156 
2.79979e-05      2.50000      53.1301 
2.78401e-05      2.22036     -125.838 
2.76403e-05      2.64008      52.6961 
1.37871e-05      2.36008     -126.384 
1.71129e-05      2.44131     -124.992 
1.70998e-05      2.78029      52.3058 
3.38371e-05      2.58070     -125.538 
1.35858e-05      2.86007      53.5308 
3.69433e-05      3.00000      53.1301 
3.00258e-05      2.72029     -126.027 
3.30716e-05      3.14006      52.7652 
2.30831e-05      2.86007     -126.469 
2.61195e-05      3.28024      52.4314 
2.28546e-05      2.94109     -125.311 
4.50500e-05      3.08058     -125.754 
2.26172e-05      3.36006      53.4711 
4.77471e-05      3.50000      53.1301 
4.42081e-05      3.22025     -126.158 
4.68073e-05      3.64006      52.8153 
2.79927e-05      3.36006     -126.529 
3.68243e-05      3.44093     -125.538 
3.98425e-05      3.78021      52.5238 
5.71858e-05      3.58050     -125.910 
3.02090e-05      3.86005      53.4270 
3.00035e-06      3.92046      52.2532 
5.92477e-05      4.00000      53.1301 
6.16872e-05      3.72022     -126.254 
6.35605e-05      4.14005      52.8533 
4.02799e-05      3.86005     -126.573 
5.64235e-05      3.94081     -125.707 
6.47403e-05      4.28019      52.5946 
7.68817e-05      4.08044     -126.027 
2.21253e-05      4.36005      53.3929 
3.28200e-05      4.42041      52.3524 
7.22811e-05      4.50000      53.1301 
8.24047e-05      4.22019     -126.327 
9.06243e-05      4.64004      52.8831 
1.04334e-05      4.30116     -125.538 
5.65988e-05      4.36005     -126.607 
7.75709e-05      4.44072     -125.838 
9.46975e-05      4.78017      52.6507 
0.000108302      4.58039     -126.119 
1.94681e-05      4.86004      53.3659 
6.92629e-05      4.92037      52.4314 
8.54974e-05      5.00000      53.1301 
0.000112501      4.72017     -126.384 
1.58249e-05      5.06063      52.2243 
0.000124913      5.14004      52.9072 
2.67316e-05      4.80104     -125.676 
7.83486e-05      4.86004     -126.634 
0.000108485      4.94065     -125.942 
0.000140332      5.28015      52.6961 
1.41970e-05      5.00000     -126.870 
0.000153909      5.08035     -126.193 
3.17244e-05      5.36004      53.3439 
0.000105497      5.42033      52.4959 
1.87617e-06      5.16140     -125.538 
0.000146365      5.22015     -126.431 
0.000117934      5.50000      53.1301 
4.35129e-05      5.56058      52.3058 
9.99747e-05      5.30094     -125.789 
0.000175453      5.64004      52.9269 
6.95622e-05      5.36004     -126.656 
0.000181902      5.44059     -126.027 
3.40184e-05      5.72014      53.5308 
0.000163171      5.78014      52.7336 
3.51910e-05      5.52178     -125.417 
0.000163478      5.58032     -126.254 
0.000142684      5.86003      53.3256 
8.07299e-05      5.92030      52.5494 
0.000187292      5.66127     -125.655 
0.000205949      6.00000      53.1301 
2.78460e-05      5.72014     -126.469 
4.57082e-05      5.74282     -125.074 
0.000190521      5.80086     -125.882 
0.000172290      6.08030      53.6955 
6.07416e-05      6.14003      52.9435 
0.000213057      5.88218     -125.311 
0.000104889      6.16117      54.2461 
0.000118756      6.22013      53.4986 
0.000208885      5.96406     -124.756 
9.97526e-05      6.24260      54.7824 
7.62294e-05      6.30079      54.0395 
6.80524e-05      6.02163     -125.538 
1.34504e-05      5.99083     -123.425 
1.22463e-05      6.04649     -124.216 
4.38827e-05      8.72067      93.9452 
5.04565e-06      6.34114      52.0458 
1.31762e-06      6.32535      50.7743 
4.52259e-06      6.38905      50.0796 
4.95222e-05      8.77269      24.2277 
4.28865e-06      6.37809      48.8141 
1.86325e-05      8.72812      94.6001 
8.20715e-06      8.74643     -84.0939 
3.25663e-06      6.00000     -126.870 
